Frequency(Hz) - Plot 0	Amplitude - Plot 0
2099,9	0,418923
2199,93	0,417994
2199,92	0,418025
2299,95	0,417024
2299,95	0,417019
2299,95	0,416973
2399,96	0,416017
2399,96	0,415988
2399,97	0,416074
2499,99	0,415025
2499,99	0,414987
2499,99	0,414985
2600,01	0,413948
2600,02	0,413934
2600	0,414055
2700,03	0,412923
2700,03	0,412867
2799,87	0,411684
2799,87	0,4117
2799,87	0,411616
2899,89	0,410446
2899,88	0,410474
2899,88	0,410587
2999,92	0,409303
2999,91	0,40927
2999,91	0,40934
3099,93	0,408156
3099,94	0,408123
3199,95	0,406887
3199,97	0,406869
3199,95	0,406874
3299,98	0,405706
3299,98	0,405566
3299,98	0,405622
3400	0,404276
3400	0,404306
3400	0,404202
3499,84	0,402991
3499,83	0,402974
3499,84	0,403054
3599,86	0,401657
3599,86	0,401618
3599,85	0,401654
3699,88	0,40032
3699,88	0,400269
3799,9	0,398959
3799,9	0,398899
3799,91	0,398904
3899,91	0,397467
3899,92	0,397495
3899,92	0,397512
3999,94	0,396072
3999,94	0,396131
3999,94	0,396064
4099,97	0,394662
4099,98	0,394576
4099,98	0,39466
4199,99	0,393096
4199,99	0,393148
4299,82	0,391649
4299,82	0,391676
4299,83	0,391732
4399,85	0,390182
4399,85	0,390163
4399,84	0,390145
4499,87	0,388624
4499,87	0,388669
4499,87	0,388642
4599,89	0,387005
4599,89	0,38707
4599,88	0,387014
4699,91	0,385587
4699,92	0,385567
4799,93	0,383896
4799,94	0,383894
4799,93	0,383929
4899,95	0,382421
4899,95	0,382396
4899,96	0,382393
4999,98	0,380954
4999,98	0,380831
4999,98	0,380769
5099,81	0,379283
5099,82	0,379181
5099,82	0,379173
5199,84	0,377671
5199,84	0,377583
5199,83	0,377754
5299,85	0,375955
5299,85	0,375977
5399,88	0,374299
5399,88	0,374323
5399,88	0,374355
5499,9	0,372682
5499,9	0,372692
5499,9	0,372626
5599,92	0,371061
5599,92	0,371036
5599,92	0,371048
5699,94	0,369444
5699,93	0,369427
5699,94	0,36938
5799,96	0,367724
5799,97	0,367763
5799,97	0,367749
5899,81	0,366096
5899,81	0,366164
5999,83	0,36445
5999,82	0,364404
5999,82	0,364554
6099,85	0,362721
6099,84	0,362786
6099,85	0,362693
6199,86	0,361032
6199,87	0,360995
6199,87	0,361067
6299,9	0,359359
6299,89	0,359404
6299,89	0,359432
6399,91	0,3577
6399,91	0,357701
6499,94	0,355992
6499,93	0,356057
6499,92	0,356042
6599,77	0,354251
6599,77	0,354372
6599,77	0,354444
6699,79	0,352595
6699,79	0,352523
6699,78	0,352612
6799,82	0,35093
6799,82	0,350848
6799,82	0,350905
6899,82	0,349196
6899,83	0,349217
6899,83	0,349198
6999,85	0,347553
6999,86	0,347453
7099,87	0,345782
7099,88	0,345829
7099,88	0,345791
7199,9	0,344127
7199,9	0,344091
7199,9	0,344089
7299,92	0,342548
7299,92	0,342449
7299,92	0,342419
7399,76	0,340737
7399,76	0,340722
7399,76	0,340774
7499,78	0,339056
7499,78	0,3391
7599,81	0,337441
7599,8	0,337445
7599,81	0,337397
7699,84	0,335786
7699,82	0,335633
7699,82	0,335661
7799,84	0,333922
7799,84	0,33394
7799,85	0,334066
7899,87	0,33226
7899,87	0,332383
7899,87	0,332267
7999,89	0,330691
7999,89	0,330587
8099,92	0,328947
8099,91	0,328963
8099,91	0,329068
8189,84	0,323672
8199,74	0,32733
8199,75	0,327268
8299,78	0,325655
8299,76	0,325668
8399,8	0,324006
8399,8	0,324016
8399,79	0,323952
8499,82	0,322414
8499,81	0,322316
8499,82	0,322338
8599,83	0,320716
8599,82	0,320784
8699,86	0,319108
8699,86	0,319195
8699,87	0,31913
8799,9	0,317511
8799,89	0,317506
8799,89	0,31752
8899,91	0,31588
8899,89	0,315947
8899,89	0,315869
8999,74	0,314166
8999,73	0,314248
8999,75	0,314219
9099,76	0,312647
9099,74	0,312603
9199,78	0,311012
9199,78	0,311038
9199,79	0,310956
9299,8	0,309426
9299,8	0,309372
9299,8	0,309392
9399,82	0,307819
9399,82	0,307816
9399,82	0,307815
9499,84	0,306247
9499,85	0,30622
9499,86	0,306174
9599,87	0,304594
9599,87	0,304646
9699,7	0,303089
9699,71	0,303096
9699,69	0,303083
9799,72	0,301514
9799,73	0,301574
9799,73	0,30153
9899,75	0,299958
9899,75	0,299976
9899,74	0,299962
9999,77	0,298413
9999,78	0,298459
9999,76	0,298566
10099,8	0,296876
10099,8	0,29694
10199,8	0,295505
10199,8	0,295333
10199,8	0,29539
10299,8	0,293808
10299,8	0,293892
10299,8	0,293865
10399,9	0,292356
10399,9	0,29232
10499,7	0,290884
10499,7	0,290794
10499,7	0,290839
10599,7	0,289356
10599,7	0,289374
10599,7	0,28936
10699,7	0,287876
10699,7	0,287836
10699,7	0,287947
10799,8	0,286401
10799,8	0,286436
10896,9	0,28484
10899,8	0,284906
10899,8	0,284948
10999,8	0,283412
10999,8	0,28342
10999,8	0,283425
11099,8	0,281998
11099,8	0,281955
11099,8	0,28198
11199,8	0,280474
11199,8	0,280461
11299,7	0,279162
11299,7	0,279137
11299,7	0,279096
11399,7	0,277662
11399,7	0,277632
11399,7	0,277633
11499,7	0,276348
11499,7	0,276252
11499,7	0,276223
11599,7	0,274877
11599,7	0,274847
11699,8	0,273437
11699,8	0,273441
11699,8	0,273505
11799,8	0,272089
11799,8	0,272077
11799,8	0,272006
11899,8	0,270776
11899,8	0,270763
11899,8	0,27074
11999,8	0,269432
11999,8	0,269382
12099,7	0,267972
12099,7	0,267965
12099,7	0,267994
12199,7	0,266709
12199,7	0,266762
12199,7	0,266674
12299,7	0,265315
12299,7	0,265326
12299,7	0,265323
12399,7	0,263997
12399,7	0,263965
12499,7	0,262671
12499,8	0,262625
12499,8	0,262638
12599,8	0,261294
12599,8	0,261336
12599,8	0,261307
12699,8	0,260037
12699,8	0,260107
12799,6	0,258745
12799,6	0,258809
12799,6	0,258703
12899,7	0,257472
12899,7	0,257391
12899,7	0,257472
12999,7	0,256253
12999,7	0,256207
13042,2	0,248213
13099,7	0,254921
13099,7	0,25492
13199,7	0,253645
13199,7	0,253633
13199,7	0,253668
13299,7	0,252451
13299,7	0,252405
13299,7	0,252367
13399,8	0,251108
13399,8	0,251158
13499,8	0,249901
13499,8	0,249881
13499,8	0,249946
13599,6	0,248677
13599,6	0,248709
13599,6	0,248683
13699,7	0,247503
13699,7	0,247434
13799,7	0,246319
13799,7	0,246257
13799,7	0,246273
13899,7	0,245033
13899,7	0,245038
13899,7	0,245165
13999,7	0,243896
13999,7	0,24395
14099,7	0,242716
14099,7	0,242726
14099,7	0,242682
14199,8	0,241481
14199,8	0,241516
14199,8	0,24151
14299,8	0,240403
14299,8	0,24036
14399,6	0,239201
14399,6	0,239191
14399,6	0,239251
14499,6	0,238098
14499,6	0,238068
14499,6	0,238091
14599,7	0,236899
14599,6	0,236938
14699,7	0,235832
14699,7	0,235814
14699,7	0,235796
14799,7	0,234703
14799,7	0,234642
14799,7	0,234656
14899,7	0,23357
14899,7	0,233591
14899,7	0,23358
14999,8	0,232545
14999,8	0,232538
15099,8	0,2313
15099,8	0,231378
15099,8	0,231387
15199,6	0,230293
15199,6	0,230279
15299,6	0,229226
15299,6	0,22918
15299,6	0,229205
15399,6	0,228161
15399,7	0,228144
15399,7	0,228152
15499,7	0,227125
15499,7	0,227066
15599,7	0,225988
15599,7	0,226027
15599,7	0,225996
15699,7	0,224975
15699,7	0,225023
15699,7	0,224971
15799,8	0,223929
15799,7	0,223925
15899,6	0,222921
15899,6	0,222878
15899,6	0,222907
15999,6	0,221873
15999,6	0,221878
15999,6	0,221868
16099,6	0,220829
16099,6	0,220787
16199,6	0,21984
16199,6	0,219804
16199,6	0,219805
16299,7	0,218799
16299,7	0,218787
16399,7	0,217819
16399,7	0,217828
16399,7	0,217837
16499,7	0,216821
16499,7	0,216867
16499,7	0,216862
16599,7	0,215882
16599,7	0,215917
16699,6	0,214858
16699,6	0,214926
16699,6	0,214883
16799,6	0,213908
16799,6	0,21394
16799,9	0,213913
16899,6	0,212977
16899,6	0,212959
16999,6	0,212049
16999,6	0,212042
16999,6	0,212034
17099,6	0,211078
17099,7	0,211076
17199,7	0,210164
17199,7	0,210154
17199,7	0,210102
17299,7	0,209175
17299,7	0,209207
17299,7	0,209164
17399,7	0,208271
17399,7	0,208246
17499,5	0,207345
17499,5	0,207329
17499,6	0,207333
17599,6	0,206391
17599,6	0,206374
17699,6	0,205551
17699,6	0,205467
17699,6	0,205514
17799,6	0,204606
17799,6	0,204681
17799,6	0,204643
17899,6	0,20374
17899,6	0,203773
17999,7	0,202869
17999,7	0,202864
17999,7	0,202852
22576	8,92E-05
